File: Isoconversional/www/example_nano-Ti_tga.txt
2424-0.5.TXT HR0.49Kmin ML-18.75% TtaDa ExpDat_02406_Ti HR0.98Kmin ML-18.46% TtaDa ExpDat_02368_Ti HR10.56Kmin ML-19.13% TtaDa ExpDat_02431_Ti HR22.43Kmin ML-19.1% TtaDa
108.3888 8702.947 -0.0005921 1.927e-06 133.193 3700.2 -5.142e-08 2.581e-07 132.878 679.6002 -0.0007604 7.253e-06 148.1320  508.0002  1.561e-03 -3.784e-05
113.5713 9361.386 0.0002151 -9.609e-08 138.3111 4017.917 0.001636 1.336e-05 139.7185 718.7027 0.0006261 6.978e-05 154.2960  525.9610 -4.192e-04  4.325e-05
118.7646 10019.825 -0.0003201 -9.034e-07 143.4477 4335.633 0.005025 -1.311e-06 146.6758 757.8052 0.0005577 -8.173e-05 160.5869  543.9218 -4.240e-04 -1.668e-05
123.9195 10678.264 0.0007341 3.52e-06 148.5877 4653.35 0.005234 6.493e-06 153.677 796.9077 0.002014 0.0001384 166.9601  561.8826  4.936e-04  1.777e-04
129.1346 11336.703 0.003404 3.684e-06 153.7462 4971.066 0.008734 1.376e-05 160.7229 836.0103 0.006098 6.827e-05 173.3991  579.8434  1.601e-03  7.333e-05
134.3688 11995.142 0.004407 1.212e-06 158.9363 5288.783 0.0124 1.856e-05 167.8256 875.1128 0.006676 -1.586e-06 179.9557  597.8042  6.497e-03  2.212e-04
139.6248 12653.581 0.00753 9.053e-06 164.1119 5606.499 0.02439 4.29e-05 174.9296 914.2153 0.01271 0.0002203 186.5798  615.7650  1.068e-02  2.732e-04
144.924 13312.02 0.01342 6.263e-06 169.2756 5924.216 0.03196 1.45e-05 182.0817 953.3178 0.02193 0.0002021 193.3147  633.7258  1.906e-02  5.330e-04
150.2281 13970.459 0.01829 1.161e-05 174.435 6241.933 0.0401 3.639e-05 189.3032 992.4203 0.02973 0.0001764 200.0971  651.6866  2.950e-02  6.655e-04
155.5478 14628.898 0.02848 1.558e-05 179.6347 6559.649 0.05151 3.567e-05 196.5302 1031.52 0.03686 0.0002364 206.9360  669.6474  4.241e-02  7.660e-04
160.8787 15287.337 0.03615 8.767e-06 184.8491 6877.366 0.06531 4.822e-05 203.7608 1070.63 0.04801 0.0003414 213.8376  687.6082  5.635e-02  9.118e-04
166.2055 15945.776 0.04348 1.495e-05 190.0659 7195.082 0.08008 4.791e-05 210.9857 1109.73 0.06263 0.0003941 220.7652  705.5690  7.224e-02  1.043e-03
171.515 16604.215 0.05561 1.988e-05 195.289 7512.799 0.0965 5.063e-05 218.2289 1148.83 0.07846 0.0004184 227.7241  723.5298  9.104e-02  9.537e-04
176.8185 17262.654 0.06905 2.222e-05 200.5222 7830.516 0.1112 4.389e-05 225.4229 1187.93 0.09568 0.000455 234.7151  741.4906  1.103e-01  1.167e-03
182.1493 17921.093 0.08418 2.344e-05 205.7314 8148.232 0.1275 6.065e-05 232.6474 1227.04 0.1166 0.000639 241.7334  759.4514  1.331e-01  1.350e-03
187.4937 18579.532 0.0998 2.298e-05 210.9972 8465.949 0.1481 6.447e-05 239.854 1266.14 0.1433 0.0006687 248.7794  777.4122  1.574e-01  1.448e-03
192.8538 19237.971 0.1159 2.652e-05 216.2179 8783.665 0.1668 5.526e-05 247.0478 1305.24 0.1681 0.0006355 255.8263  795.3730  1.841e-01  1.486e-03
198.2462 19896.41 0.1341 2.85e-05 221.4629 9101.382 0.1897 8.867e-05 254.2117 1344.34 0.194 0.0007438 262.8993  813.3338  2.096e-01  1.538e-03
203.6251 20554.849 0.1533 2.929e-05 226.6906 9419.098 0.2146 6.11e-05 261.3917 1383.45 0.2255 0.0007724 269.9286  831.2946  2.377e-01  1.549e-03
209.0165 21213.288 0.1752 3.65e-05 231.9154 9736.815 0.2364 7.343e-05 268.5532 1422.55 0.2532 0.0007396 277.0130  849.2554  2.685e-01  1.933e-03
214.3875 21871.727 0.1991 3.602e-05 237.1418 10054.532 0.2572 6.906e-05 275.7029 1461.65 0.285 0.0008369 284.0965  867.2162  3.016e-01  1.865e-03
219.774 22530.166 0.2234 3.849e-05 242.3813 10372.248 0.2836 9.304e-05 282.819 1500.753 0.3186 0.0008891 291.1665  885.1770  3.365e-01  2.023e-03
225.1364 23188.605 0.2498 4.218e-05 247.5945 10689.965 0.3148 9.671e-05 289.937 1539.86 0.3565 0.0009497 298.2251  903.1378  3.702e-01  1.718e-03
230.5094 23847.044 0.2772 4.026e-05 252.8263 11007.681 0.3435 8.63e-05 297.003 1578.958 0.3909 0.0008681 305.2443  921.0986  4.062e-01  2.157e-03
235.8808 24505.483 0.3041 4.36e-05 258.048 11325.398 0.3707 8.689e-05 304.0802 1618.06 0.4284 0.001132 312.2769  939.0594  4.420e-01  1.930e-03
241.2419 25163.921 0.3344 4.733e-05 263.2825 11643.114 0.4002 9.985e-05 311.129 1657.163 0.4722 0.001027 319.2631  957.0201  4.801e-01  2.111e-03
246.6164 25822.36 0.3656 4.622e-05 268.5028 11960.831 0.4321 9.642e-05 318.1557 1696.27 0.5127 0.001021 326.2564  974.9809  5.168e-01  2.016e-03
251.9819 26480.799 0.3969 5.026e-05 273.7262 12278.548 0.4622 9.798e-05 325.1411 1735.368 0.5507 0.0009417 333.2128  992.9417  5.538e-01  2.129e-03
257.3718 27139.238 0.4312 5.243e-05 278.9449 12596.264 0.4956 0.0001043 332.1153 1774.47 0.5884 0.001075 340.1139 1010.9  5.893e-01  1.882e-03
262.7608 27797.677 0.4646 5.029e-05 284.1595 12913.981 0.5277 0.0001026 339.0674 1813.57 0.6275 0.0009465 347.0210 1028.86  6.231e-01  1.960e-03
268.1722 28456.116 0.4979 5.093e-05 289.3747 13231.697 0.5598 0.0001002 345.9761 1852.68 0.6625 0.0008698 353.8796 1046.82  6.557e-01  1.772e-03
273.5236 29114.555 0.5316 5.222e-05 294.5634 13549.414 0.5915 9.808e-05 352.8779 1891.78 0.6957 0.0008453 360.7115 1064.78  6.881e-01  1.827e-03
278.8649 29772.994 0.566 5.093e-05 299.778 13867.131 0.6231 0.0001013 359.7391 1930.88 0.7262 0.0007295 367.5102 1082.75  7.153e-01  1.424e-03
284.2329 30431.433 0.5987 5.022e-05 304.9643 14184.847 0.6515 8.136e-05 366.5851 1969.98 0.7572 0.0008427 374.2981 1100.71  7.435e-01  1.534e-03
289.5951 31089.872 0.6323 5.055e-05 310.1413 14502.564 0.682 0.0001027 373.44 2009.09 0.786 0.0006287 381.0397 1118.67  7.674e-01  1.243e-03
294.9621 31748.311 0.6653 5.005e-05 315.3306 14820.28 0.7143 9.798e-05 380.2354 2048.19 0.8108 0.0006288 387.7487 1136.63  7.905e-01  1.251e-03
300.3403 32406.75 0.6979 4.628e-05 320.5329 15137.997 0.742 7.771e-05 387.0403 2087.29 0.8349 0.0005954 394.4497 1154.59  8.126e-01  1.306e-03
305.6722 33065.189 0.7271 4.368e-05 325.7097 15455.713 0.7668 7.551e-05 393.836 2126.39 0.8556 0.0004775 401.1257 1172.55  8.348e-01  1.142e-03
311.0158 33723.628 0.757 4.658e-05 330.9107 15773.43 0.7894 7e-05 400.6151 2165.5 0.8765 0.0005065 407.7650 1190.51  8.559e-01  1.052e-03
316.3489 34382.067 0.786 4.036e-05 336.0944 16091.147 0.8139 9.766e-05 407.3707 2204.6 0.8933 0.0005456 414.3912 1208.47  8.741e-01  9.257e-04
321.7316 35040.506 0.8114 4.003e-05 341.2823 16408.863 0.8382 3.593e-05 414.1301 2243.7 0.9127 0.0003814 421.0072 1226.43  8.903e-01  9.601e-04
327.0824 35698.945 0.8375 3.614e-05 346.4532 16726.58 0.8533 6.73e-05 420.8573 2282.8 0.9277 0.0003772 427.5854 1244.39  9.078e-01  8.333e-04
332.4469 36357.384 0.8571 2.726e-05 351.6444 17044.296 0.8749 6.561e-05 427.5827 2321.91 0.9394 0.0002797 434.1538 1262.35  9.225e-01  8.047e-04
337.772 37015.823 0.8757 2.865e-05 356.8298 17362.013 0.893 4.868e-05 434.2912 2361.01 0.953 0.0003194 440.6905 1280.31  9.353e-01  6.696e-04
343.1242 37674.262 0.8949 2.884e-05 362.028 17679.73 0.9078 4.919e-05 440.9598 2400.11 0.963 0.0001798 447.2180 1298.28  9.476e-01  6.293e-04
348.5218 38332.701 0.9126 2.584e-05 367.2072 17997.446 0.9246 5.413e-05 447.6483 2439.21 0.9681 0.0001304 453.7153 1316.24  9.575e-01  6.040e-04
353.9338 38991.14 0.9278 1.959e-05 372.356 18315.163 0.936 1.793e-05 454.2766 2478.32 0.9735 0.0001912 460.1898 1334.2  9.671e-01  3.530e-04
359.2936 39649.579 0.94 2.048e-05 377.5066 18632.879 0.9462 4.077e-05 460.9374 2517.42 0.9824 0.0001988 466.6214 1352.16  9.758e-01  4.921e-04
364.5819 40308.018 0.9532 1.848e-05 382.6601 18950.596 0.9573 3.055e-05 467.56 2556.52 0.9827 -2.765e-06 473.0316 1370.12  9.810e-01  2.168e-04
369.9444 40966.457 0.9647 1.659e-05 387.8057 19268.312 0.9663 2.388e-05 474.1716 2595.62 0.9858 3.532e-05 479.4136 1388.08  9.842e-01  1.752e-04
375.3024 41624.896 0.9734 1.052e-05 392.9609 19586.029 0.9733 2.71e-05 480.7962 2634.73 0.9886 9.624e-05 485.7691 1406.04  9.858e-01  1.572e-04
380.605 42283.335 0.9804 1.169e-05 398.1147 19903.746 0.9837 1.85e-05 487.4226 2673.83 0.9916 6.882e-05 492.1044 1424  9.887e-01  1.085e-04
385.942 42941.774 0.987 7.412e-06 403.2492 20221.462 0.9825 1.054e-07 494.028 2712.93 0.9941 6.022e-05 498.4278 1441.96  9.924e-01  3.640e-04
391.3087 43600.213 0.9924 8.327e-06 408.3919 20539.179 0.9867 1.623e-05 500.6859 2752.03 0.9946 7.17e-05 504.7556 1459.92  9.943e-01 -1.080e-05
396.4546 44258.652 0.9949 2.348e-06 413.5409 20856.895 0.9915 1.222e-05 507.2917 2791.14 0.997 3.625e-06 511.0798 1477.88  9.948e-01  7.931e-05
401.8227 44917.091 0.9972 4.192e-06 418.6689 21174.612 0.9959 2.486e-05 513.9361 2830.24 0.9956 4.225e-06 517.4152 1495.84  9.959e-01  3.660e-05
407.2213 45575.53 0.9981 -1.388e-06 423.8257 21492.328 1.002 -2.164e-05 520.58 2869.34 0.9971 2.549e-05 523.7618 1513.8  9.976e-01  1.120e-04
412.5804 46233.969 0.9987 3.623e-06 428.9968 21810.045 0.9958 2.586e-06 527.2417 2908.44 0.9976 -7.204e-05 530.1198 1531.77  9.978e-01  7.238e-05
417.9356 46892.408 0.9991 -1.173e-06 434.1506 22127.762 0.9969 -2.722e-06 533.9022 2947.55 0.9981 8.586e-05 536.4672 1549.73  1.000e+00  2.573e-06
423.248 47550.847 0.9989 9.345e-07 439.3229 22445.478 0.9985 1.183e-05 540.563 2986.65 1 -4.504e-06 542.8222 1567.69  9.997e-01 -2.137e-05
428.5364 48209.286 1.001 2.329e-06 444.4848 22763.195 0.9991 -1.286e-05 547.2102 3025.751 1 3.362e-05 549.1720 1585.65  1.001e+00 -7.708e-06
433.8731 48867.725 1 -1.847e-06 449.6494 23080.911 0.9977 1.364e-05 553.8658 3064.85 1 -4.261e-05 555.5232 1603.61  1.001e+00  7.114e-05
439.2107 49526.164 1 2.211e-06 454.8279 23398.628 1.002 1.903e-06 560.5057 3103.956 1.001 8.672e-05 561.8698 1621.57  1.001e+00  5.595e-05
444.5363 50184.603 1.001 -7.986e-07 460.0211 23716.345 1.001 5.199e-06 567.171 3143.06 1.002 -9.316e-05 568.2140 1639.53  1.001e+00 -8.127e-05
449.8954 50843.042 1.001 1.255e-07 465.1996 24034.061 1.003 -1.265e-05 573.8123 3182.161 1.001 8.576e-05 574.5679 1657.49  1.001e+00 -9.727e-05
455.2084 51501.481 1.002 2.764e-06 470.3585 24351.778 0.9995 3.847e-06 580.4867 3221.26 1.001 -8.401e-05 580.9033 1675.45  1.001e+00 -4.663e-05
460.5544 52159.92 1.002 -4.122e-06 475.5641 24669.494 0.9998 -4.436e-06 587.1267 3260.366 1.001 2.962e-05 587.2417 1693.41  1.000e+00  8.241e-05
462.342 52379.4 1.001 -4.37e-06 477.291 24775.4 0.9992 -5.342e-06 589.334 3273.4 1.001 1.141e-05 589.3540 1699.4  1.001e+00  2.402e-05